Residue,(nm)
1.0,0.2856
2.0,0.1682
3.0,0.1227
4.0,0.1099
5.0,0.0932
6.0,0.0933
7.0,0.1006
8.0,0.0888
9.0,0.0802
10.0,0.0942
11.0,0.0985
12.0,0.0838
13.0,0.0822
14.0,0.0985
15.0,0.1002
16.0,0.0851
17.0,0.0885
18.0,0.1078
19.0,0.124
20.0,0.0982
21.0,0.1219
22.0,0.1565
23.0,0.2526
24.0,0.2478
25.0,0.2102
26.0,0.1609
27.0,0.1516
28.0,0.121
29.0,0.1811
30.0,0.2635
31.0,0.3648
32.0,0.3577
33.0,0.2344
34.0,0.1478
35.0,0.0842
36.0,0.0939
37.0,0.1071
38.0,0.1266
39.0,0.1619
40.0,0.1688
41.0,0.1202
42.0,0.0925
43.0,0.0917
44.0,0.0813
45.0,0.0646
46.0,0.0623
47.0,0.064
48.0,0.0562
49.0,0.0502
50.0,0.0571
51.0,0.0595
52.0,0.0595
53.0,0.058
54.0,0.068
55.0,0.0755
56.0,0.0689
57.0,0.0743
58.0,0.0994
59.0,0.1083
60.0,0.1053
61.0,0.0796
62.0,0.1087
63.0,0.0912
64.0,0.0848
65.0,0.0735
66.0,0.0946
67.0,0.1282
68.0,0.224
